;UO 
;UO Al09Ga90.AsA:  Values of n and k for cubic aluminum gallium
;UO arsenide (Al0.099Ga0.901As) from various references in HOCII
;UO (pg. 521).  Reference is 2.
;UO 
;UO From HANDBOOK OF OPTICAL CONSTANTS IN SOLIDS II edited by Edward D.
;UO Palik. Copyright (c) 1991 by Academic Press, Inc. Reproduced by
;UO permission of the publisher.
;UO ------------------------------------------------------------ 
;UO        nm        n        k
;UO ------------------------------------------------------------	
;N  3
;L    Wavelength[nm]        n        k
206.60	1.31100000	2.45700000
210.10	1.31800000	2.53800000
213.80	1.33000000	2.60800000
217.50	1.34500000	2.69800000
221.40	1.37100000	2.80000000
225.40	1.40800000	2.92100000
229.60	1.45900000	3.05900000
233.90	1.53100000	3.22300000
238.40	1.63400000	3.43300000
243.10	1.81900000	3.70400000
248.00	2.20700000	3.98300000
253.00	2.77200000	4.03600000
258.30	3.26700000	3.84600000
263.80	3.61100000	3.53600000
269.50	3.82900000	3.22900000
275.50	4.01000000	2.87600000
281.80	4.01700000	2.50700000
288.30	3.92200000	2.24000000
295.20	3.80100000	2.07400000
302.40	3.69700000	1.98300000
310.00	3.61800000	1.93700000
317.90	3.56600000	1.92000000
326.30	3.53700000	1.92400000
335.10	3.53200000	1.94500000
344.40	3.55200000	1.97900000
354.20	3.60100000	2.03000000
364.70	3.69000000	2.10000000
375.70	3.86400000	2.20300000
387.50	4.25300000	2.18700000
400.00	4.46000000	1.94900000
413.30	4.83800000	1.83600000
427.50	4.96800000	1.12600000
442.80	4.72500000	0.76300000
459.20	4.51800000	0.57500000
476.90	4.35300000	0.46200000
495.90	4.22000000	0.38200000
516.60	4.11100000	0.32000000
539.10	4.01800000	0.27600000
563.60	3.94000000	0.23700000
590.40	3.87600000	0.19900000
619.90	3.82000000	0.17100000
652.60	3.77500000	0.12700000
688.80	3.71600000	0.09900000
729.30	3.67800000	0.08200000
774.90	3.66100000	0.05900000
