;UO 
;UO Al80Ga19.AsA:  Values of n and k for cubic aluminum gallium
;UO arsenide (Al0.804Ga0.196As) from various references in HOCII
;UO (pg. 528).  Reference is 2. 
;UO 
;UO From HANDBOOK OF OPTICAL CONSTANTS IN SOLIDS II edited by Edward D.
;UO Palik. Copyright (c) 1991 by Academic Press, Inc. Reproduced by
;UO permission of the publisher.
;UO ----------------------------------------------------------- 
;UO        nm        n        k
;UO -----------------------------------------------------------	
;N  3
;L    Wavelength[nm]        n        k
206.60	1.36800000	2.40900000
210.10	1.36000000	2.47300000
213.80	1.35400000	2.56000000
217.50	1.37000000	2.66700000
221.40	1.39900000	2.79200000
225.40	1.44700000	2.93500000
229.60	1.52800000	3.10400000
233.90	1.66100000	3.29300000
238.40	1.85700000	3.47500000
243.10	2.11000000	3.63500000
248.00	2.42600000	3.76300000
253.00	2.83300000	3.81500000
258.30	3.23300000	3.76500000
263.80	3.75100000	3.58200000
269.50	4.10700000	3.12800000
275.50	4.11200000	2.63900000
281.80	4.00400000	2.38900000
288.30	3.92800000	2.25600000
295.20	3.89300000	2.18300000
302.40	3.90400000	2.14400000
310.00	3.96200000	2.11900000
317.90	4.07800000	2.09200000
326.30	4.26700000	2.01300000
335.10	4.46200000	1.82000000
344.40	4.61300000	1.56100000
354.20	4.66700000	1.19900000
364.70	4.56200000	0.89000000
375.70	4.41300000	0.68500000
387.50	4.27700000	0.54100000
400.00	4.15500000	0.43700000
413.30	4.05000000	0.35300000
427.50	3.96100000	0.27600000
442.80	3.87200000	0.20500000
459.20	3.78700000	0.16100000
476.90	3.73800000	0.10400000
495.90	3.63500000	0.01300000
516.60	3.51900000	0.00400000
539.10	3.44000000	0.00300000
563.60	3.37800000	0.0
590.40	3.32200000	0.0
619.90	3.27700000	0.0
652.60	3.23600000	0.0
688.80	3.20200000	0.0
729.30	3.17300000	0.0
774.90	3.14700000	0.0
826.60	3.12400000	0.0
