;  Optical constants for cubic AlAs
; 
;   taken from:
;
;   'Handbook of Optical Constants of Solids II', Ed. by Edward D. Palik,
;   Academic Press, Inc., 1991.
;   
;    Lambda (nm)            n            k
;-----------------------------------------
221.39	1.36000000	2.75000000
225.42	1.36000000	2.89000000
229.59	1.36000000	3.12000000
233.93	1.53000000	3.40000000
238.42	1.77000000	3.65000000
243.10	2.16000000	3.86000000
247.96	2.48000000	3.95000000
253.02	2.92000000	4.04000000
258.29	3.48000000	4.02000000
263.79	3.96000000	3.70000000
269.52	4.22000000	3.09000000
275.51	4.18000000	2.63000000
281.77	4.04000000	2.52000000
288.33	4.01000000	2.52000000
295.19	4.11000000	2.63000000
302.39	4.47000000	2.68000000
309.95	4.92000000	2.49000000
317.90	5.35000000	2.15000000
326.26	5.39000000	1.30000000
335.08	4.99000000	0.75200000
344.39	4.72000000	0.51900000
354.23	4.48000000	0.33400000
364.65	4.30000000	0.23300000
375.70	4.13000000	0.13900000
387.44	3.93000000	0.11500000
393.59	0.00000000	0.11900000
397.37	0.00000000	0.11500000
399.94	0.00000000	0.11300000
403.19	0.00000000	0.11000000
406.49	0.00000000	0.10600000
409.85	0.00000000	0.09980000
413.27	0.00000000	0.06380000
416.74	0.00000000	0.03150000
420.27	0.00000000	0.01890000
423.86	0.00000000	0.01180000
427.52	0.00000000	0.01050000
431.24	0.00000000	0.01030000
435.02	0.00000000	0.00993000
442.79	3.70300000	0.00161000
459.19	3.57000000	0.00156000
476.85	3.47200000	0.00153000
495.92	3.39400000	0.00125000
516.58	3.32900000	0.00068200
539.04	3.27300000	0.00027500
563.54	3.22500000	0.00004040
590.38	3.18300000	0.00000230
619.90	3.14500000	0.00000000
652.53	3.11200000	0.00000000
688.78	3.08200000	0.00000000
729.29	3.05600000	0.00000000
774.88	3.03200000	0.00000000
826.53	3.01000000	0.00000000
885.57	2.99000000	0.00000000
953.69	2.97300000	0.00000000
1033.17	2.95700000	0.00000000
1127.09	2.94300000	0.00000000
1239.80	2.93000000	0.00000000
1377.56	2.91900000	0.00000000
1549.75	2.90900000	0.00000000
1771.14	2.90100000	0.00000000
2066.33	2.89400000	0.00000000
2479.60	2.88800000	0.00000000
