; Refractive index spectrum for C by Hagemann
;
; 1) H.-J. Hagemann et al.. Optical constants from the far infrared to the x-ray region: Mg, Al, Cu, Ag, Au, Bi, C, and Al<sub>2</sub>O<sub>3</sub>, <a href="http://dx.doi.org/10.1364/JOSA.65.000742"><i>J. Opt. Soc. Am.</i> <b>65</b>, 742-744 (1975)</a><br>2) H.-J. Hagemann et al.. <a href="http://refractiveindex.info/download/data/1974/Hagemann 1974 - DESY report SR-74-7.pdf">DESY report SR-74/7 (1974)</a>
;
; lambda/nm    n     k
103.30 	1.60800000 	0.78600000 
107.80 	1.66300000 	0.73000000 
112.70 	1.72300000 	0.66900000 
118.10 	1.78500000 	0.58200000 
124.00 	1.81100000 	0.44900000 
130.50 	1.79100000 	0.33400000 
137.80 	1.73600000 	0.22300000 
145.90 	1.64900000 	0.14400000 
155.00 	1.53100000 	0.08690000 
165.30 	1.39900000 	0.10100000 
177.10 	1.28000000 	0.15800000 
190.70 	1.19600000 	0.28000000 
206.60 	1.15800000 	0.41500000 
225.40 	1.19500000 	0.61000000 
248.00 	1.34400000 	0.75400000 
275.50 	1.51800000 	0.76400000 
310.00 	1.63800000 	0.72300000 
354.20 	1.70600000 	0.68100000 
413.30 	1.75200000 	0.67800000 
495.90 	1.80700000 	0.69600000 
619.90 	1.87900000 	0.73900000 
826.60 	1.97400000 	0.81600000 
1240.00 	2.20400000 	1.04000000 
2480.00 	2.69800000 	1.18000000 
