; From SOPRA S.A. http://www.sopra-sa.com/indices.htm
; Filename    Symbol               Range (nm)     Description
; COSI2-4     CoSi2               258     1239    Cobalt Silicide
; lambda/nm       n         k
258.30	2.18400000	2.40200000
263.80	2.18300000	2.40600000
269.53	2.18600000	2.40400000
275.52	2.19200000	2.39600000
281.78	2.20100000	2.38300000
288.34	2.21500000	2.36700000
295.20	2.23200000	2.34800000
302.40	2.25300000	2.32700000
309.96	2.27800000	2.30600000
317.91	2.30500000	2.28500000
326.28	2.33400000	2.26700000
335.10	2.36200000	2.25200000
344.40	2.38600000	2.24200000
354.24	2.40700000	2.23800000
364.66	2.42600000	2.24000000
375.71	2.44400000	2.24800000
387.45	2.46900000	2.26200000
399.95	2.50700000	2.28000000
413.28	2.56000000	2.29900000
427.54	2.63100000	2.31300000
442.80	2.71800000	2.31600000
459.20	2.81300000	2.30000000
476.87	2.91100000	2.25800000
495.94	3.00000000	2.18800000
516.60	3.07100000	2.10600000
539.07	3.11500000	2.02800000
563.57	3.12400000	1.95400000
590.41	3.09400000	1.88400000
619.93	3.02400000	1.81700000
652.55	2.91700000	1.75500000
688.81	2.77800000	1.70300000
729.32	2.61400000	1.67600000
774.91	2.43200000	1.70100000
826.57	2.23800000	1.81100000
885.61	2.03700000	2.03800000
953.73	1.83400000	2.40400000
1033.21	1.63000000	2.91200000
1127.14	1.42800000	3.56000000
1239.85	1.22700000	4.34600000
