; From SOPRA S.A. http://www.sopra-sa.com/indices.htm
; Filename    Symbol               Range (nm)     Description
; FESI2EL1    FeSi2               137      275    Iron Silicide
; lambda/nm       n         k
137.76	0.62800000	1.39000000
139.31	0.60000000	1.41000000
140.89	0.56900000	1.43200000
142.51	0.55800000	1.46000000
144.17	0.56000000	1.49200000
145.86	0.56000000	1.52200000
147.60	0.56200000	1.55600000
149.38	0.57300000	1.59600000
151.20	0.58400000	1.64000000
153.07	0.59400000	1.68500000
154.98	0.60400000	1.73100000
156.94	0.61400000	1.77500000
158.96	0.63300000	1.81700000
161.02	0.66700000	1.85800000
163.14	0.70400000	1.90000000
165.31	0.72700000	1.94200000
167.55	0.73500000	1.98400000
169.84	0.74400000	2.02800000
172.20	0.76100000	2.07200000
174.63	0.78600000	2.11500000
177.12	0.81300000	2.15700000
179.69	0.84300000	2.19900000
182.33	0.87600000	2.24200000
185.05	0.91100000	2.28700000
187.86	0.94900000	2.33400000
190.75	0.98700000	2.38100000
193.73	1.02300000	2.42900000
196.80	1.05900000	2.47700000
199.98	1.10200000	2.52400000
203.25	1.15300000	2.57300000
206.64	1.21200000	2.62300000
210.14	1.27800000	2.67600000
213.77	1.34700000	2.73000000
217.52	1.42000000	2.78300000
221.40	1.49900000	2.83100000
225.43	1.58900000	2.87400000
229.60	1.69000000	2.91000000
233.93	1.80100000	2.93800000
238.43	1.91700000	2.95900000
243.11	2.03600000	2.97500000
247.97	2.15700000	2.98400000
253.03	2.27600000	2.97700000
258.30	2.38600000	2.94500000
263.80	2.47800000	2.89200000
269.53	2.54200000	2.82700000
275.52	2.56700000	2.76000000
