;  Optical constants for GaSb
; 
;   taken from:
;
;   'Handbook of Optical Constants of Solids II', Ed. by Edward D. Palik,
;   Academic Press, Inc., 1991.
;   
;    Lambda (nm)            n            k
;-----------------------------------------
206.63	0.93500000	2.41600000
210.14	0.98500000	2.44400000
213.76	1.02200000	2.47900000
217.51	1.06200000	2.53500000
221.39	1.12700000	2.60200000
225.42	1.21200000	2.64500000
229.59	1.29900000	2.65300000
233.93	1.34500000	2.63800000
238.42	1.35600000	2.64500000
243.10	1.35800000	2.68500000
247.96	1.36900000	2.75100000
253.02	1.38700000	2.82900000
258.29	1.40800000	2.92800000
263.79	1.44400000	3.05500000
269.52	1.50300000	3.20800000
275.51	1.58600000	3.39200000
281.77	1.72300000	3.62800000
288.33	1.98900000	3.92300000
295.19	2.52200000	4.13000000
302.39	3.10000000	3.97600000
309.95	3.45000000	3.64300000
317.90	3.62000000	3.32300000
326.26	3.70100000	3.06900000
335.08	3.74800000	2.86200000
344.39	3.77400000	2.69000000
354.23	3.78500000	2.54500000
364.65	3.79400000	2.43000000
375.70	3.80800000	2.31900000
387.44	3.80000000	2.21000000
399.94	3.76600000	2.13400000
413.27	3.73200000	2.10900000
427.52	3.72800000	2.12100000
442.79	3.76000000	2.15700000
459.19	3.83600000	2.21100000
476.85	3.98400000	2.28000000
495.92	4.31200000	2.28500000
516.58	4.51300000	1.96200000
539.04	4.49200000	1.78900000
563.54	4.52100000	1.74700000
590.38	4.70500000	1.80300000
