; From SOPRA S.A. http://www.sopra-sa.com/indices.htm
; Filename    Symbol               Range (nm)     Description
; GASBOX      GaSbO               206      774    Gallium Antimonide Oxide
; lambda/nm       n         k
206.64	1.89400000	0.97530000
210.14	1.93100000	0.97620000
213.77	1.97300000	0.97510000
217.52	2.01900000	0.97110000
221.40	2.07000000	0.96270000
225.43	2.12600000	0.94830000
229.60	2.18600000	0.92590000
233.93	2.24900000	0.89330000
238.43	2.31300000	0.84840000
243.11	2.37400000	0.78960000
247.97	2.42700000	0.71700000
253.03	2.46800000	0.63220000
258.30	2.49200000	0.53950000
263.80	2.49800000	0.44470000
269.53	2.48600000	0.35380000
275.52	2.45800000	0.27170000
281.78	2.42000000	0.20150000
288.34	2.37600000	0.14410000
295.20	2.32900000	0.09888000
302.40	2.28300000	0.06450000
309.96	2.23900000	0.03912000
317.91	2.19900000	0.02092000
326.28	2.16200000	0.00831200
335.10	2.12900000	0.00000000
344.40	2.10000000	0.00000000
354.24	2.07400000	0.00000000
364.66	2.05200000	0.00000000
375.71	2.03300000	0.00000000
387.45	2.01600000	0.00000000
399.95	2.00200000	0.00000000
413.28	1.99000000	0.00000000
427.54	1.97900000	0.00000000
442.80	1.97100000	0.00000000
459.20	1.96300000	0.00000000
476.87	1.95700000	0.00000000
495.94	1.95300000	0.00000000
516.60	1.94900000	0.00000000
539.07	1.94600000	0.00000000
563.57	1.94400000	0.00000000
590.41	1.94200000	0.00000000
619.93	1.94100000	0.00000000
652.55	1.94100000	0.00000000
688.81	1.94100000	0.00000000
729.32	1.94200000	0.00000000
774.91	1.94300000	0.00000000
