;  Optical constants for hexagonal ZnS, ordinary ray
; 
;   taken from:
;
;   'Handbook of Optical Constants of Solids', Ed. by Edward D. Palik,
;   Academic Press, Inc., 1985.
;   
;    Lambda (nm)            n            k
;-----------------------------------------
112.71	0.84000000	1.02000000
118.08	0.89000000	1.13000000
123.98	0.99000000	1.21000000
130.51	1.15000000	1.34000000
134.03	1.24000000	1.33000000
137.76	1.37000000	1.26000000
141.69	1.36000000	1.18000000
145.86	1.29000000	1.18000000
150.28	1.27000000	1.26000000
154.97	1.27000000	1.34000000
159.97	1.33000000	1.45000000
165.31	1.42000000	1.54000000
171.01	1.51000000	1.66000000
177.11	1.73000000	1.75000000
183.67	2.08000000	1.50000000
190.74	2.07000000	1.34000000
198.37	2.00000000	1.33000000
206.63	1.97000000	1.50000000
215.62	2.30000000	1.65000000
225.42	2.65000000	1.37000000
236.15	2.63000000	1.05000000
247.96	2.60000000	0.91000000
261.01	2.60000000	0.84000000
275.51	2.60000000	0.74000000
291.72	2.58000000	0.67000000
309.95	2.57000000	0.72000000
330.61	2.75000000	0.45000000
354.23	2.69000000	0.30000000
359.99	2.70500000	0.00000000
375.01	2.63700000	0.00000000
381.48	2.62000000	0.24000000
399.94	2.56000000	0.00000000
409.99	2.53900000	0.00000000
413.27	2.54000000	0.18000000
419.99	2.52200000	0.00000000
425.03	2.51100000	0.00000000
430.04	2.50200000	0.00000000
439.96	2.48600000	0.00000000
450.02	2.47300000	0.00000000
450.84	2.49000000	0.15000000
460.04	2.45900000	0.00000000
469.98	2.44800000	0.00000000
475.02	2.44500000	0.00000000
479.99	2.43800000	0.00000000
490.04	2.42800000	0.00000000
495.92	2.42000000	0.10000000
499.92	2.42100000	0.00000000
524.89	2.40200000	0.00000000
550.04	2.38600000	0.00000000
575.05	2.37500000	0.00000000
600.10	2.36300000	0.00000000
619.90	2.38000000	0.06000000
624.90	2.35400000	0.00000000
650.13	2.34600000	0.00000000
674.90	2.33900000	0.00000000
700.06	2.33200000	0.00000000
799.87	2.32400000	0.00000000
899.71	2.31000000	0.00000000
999.84	2.30100000	0.00000000
1200.19	2.29000000	0.00000000
1399.95	2.28500000	0.00000000
2000.00	2.27000000	0.00000000
