; Refractive index of magnesium fluoride
; at room temperature for the extraordinary ray
;
; Data for n from:
; [1] M. J. Dodge, "Refractive properties of magnesium fluoride",
; Appl. Opt. 23, 1980-1985 (1984)
; [2] P. Laporte, J. L. Subtil, M. Courbon, and M. Bon,
; "Vacuum-ultraviolet refractive index of LiF and MgF2 in the
; temperature range 80K - 300K", J. Opt. Soc. Am. 73, 1062-1068 (1983)
;
; Data for k from:
; Calculated from digitized transmittance spectra for MgF2 published online
; by Korth Kristalle GmbH, Goettingen; http://www.korth.de,
; and the published refractive index spectra.
; 
; lambda/nm   n    k
119.80 	1.652000 	0.000001 
121.50 	1.632000 	0.000001 
125.10 	1.600500 	0.000001 
127.50 	1.583500 	0.000001 
130.10 	1.568000 	0.000001 
135.00 	1.541500 	0.000000 
140.00 	1.523000 	0.000000 
145.00 	1.508500 	0.000000 
150.00 	1.494500 	0.000000 
155.00 	1.485500 	0.000000 
160.00 	1.475000 	0.000000 
165.00 	1.467500 	0.000000 
170.00 	1.461500 	0.000000 
175.00 	1.457500 	0.000000 
180.00 	1.453000 	0.000000 
185.00 	1.447950 	0.000000 
190.00 	1.444000 	0.000000 
195.00 	1.439500 	0.000000 
200.00 	1.436570 	0.000000 
205.00 	1.433580 	0.000000 
210.00 	1.430850 	0.000000 
215.00 	1.428360 	0.000000 
220.00 	1.426080 	0.000000 
225.00 	1.423980 	0.000000 
230.00 	1.422040 	0.000000 
235.00 	1.420250 	0.000000 
240.00 	1.418600 	0.000000 
245.00 	1.417050 	0.000000 
250.00 	1.415620 	0.000000 
255.00 	1.414280 	0.000000 
260.00 	1.413030 	0.000000 
265.00 	1.411860 	0.000000 
270.00 	1.410770 	0.000000 
275.00 	1.409740 	0.000000 
280.00 	1.408770 	0.000000 
285.00 	1.407860 	0.000000 
290.00 	1.407000 	0.000000 
295.00 	1.406190 	0.000000 
300.00 	1.405430 	0.000000 
305.00 	1.404700 	0.000000 
310.00 	1.404020 	0.000000 
315.00 	1.403360 	0.000000 
320.00 	1.402750 	0.000000 
325.00 	1.402160 	0.000000 
330.00 	1.401600 	0.000000 
335.00 	1.401070 	0.000000 
340.00 	1.400560 	0.000000 
345.00 	1.400070 	0.000000 
350.00 	1.399610 	0.000000 
355.00 	1.399170 	0.000000 
360.00 	1.398750 	0.000000 
365.00 	1.398340 	0.000000 
370.00 	1.397960 	0.000000 
375.00 	1.397590 	0.000000 
380.00 	1.397230 	0.000000 
385.00 	1.396890 	0.000000 
390.00 	1.396560 	0.000000 
395.00 	1.396250 	0.000000 
400.00 	1.395940 	0.000000 
405.00 	1.395650 	0.000000 
410.00 	1.395370 	0.000000 
415.00 	1.395100 	0.000000 
420.00 	1.394840 	0.000000 
425.00 	1.394590 	0.000000 
430.00 	1.394350 	0.000000 
435.00 	1.394110 	0.000000 
440.00 	1.393890 	0.000000 
445.00 	1.393670 	0.000000 
450.00 	1.393460 	0.000000 
455.00 	1.393250 	0.000000 
460.00 	1.393060 	0.000000 
465.00 	1.392870 	0.000000 
470.00 	1.392680 	0.000000 
475.00 	1.392500 	0.000000 
480.00 	1.392330 	0.000000 
485.00 	1.392160 	0.000000 
490.00 	1.391990 	0.000000 
495.00 	1.391830 	0.000000 
500.00 	1.391680 	0.000000 
505.00 	1.391530 	0.000000 
510.00 	1.391390 	0.000000 
515.00 	1.391240 	0.000000 
520.00 	1.391110 	0.000000 
525.00 	1.390970 	0.000000 
530.00 	1.390840 	0.000000 
535.00 	1.390710 	0.000000 
540.00 	1.390590 	0.000000 
545.00 	1.390470 	0.000000 
550.00 	1.390350 	0.000000 
555.00 	1.390240 	0.000000 
560.00 	1.390130 	0.000000 
565.00 	1.390020 	0.000000 
570.00 	1.389910 	0.000000 
575.00 	1.389810 	0.000000 
580.00 	1.389710 	0.000000 
585.00 	1.389610 	0.000000 
590.00 	1.389510 	0.000000 
595.00 	1.389420 	0.000000 
600.00 	1.389320 	0.000000 
605.00 	1.389230 	0.000000 
610.00 	1.389140 	0.000000 
615.00 	1.389060 	0.000000 
620.00 	1.388970 	0.000000 
625.00 	1.388890 	0.000000 
630.00 	1.388810 	0.000000 
635.00 	1.388730 	0.000000 
640.00 	1.388650 	0.000000 
645.00 	1.388570 	0.000000 
650.00 	1.388500 	0.000000 
655.00 	1.388420 	0.000000 
660.00 	1.388350 	0.000000 
665.00 	1.388280 	0.000000 
670.00 	1.388210 	0.000000 
675.00 	1.388140 	0.000000 
680.00 	1.388070 	0.000000 
685.00 	1.388010 	0.000000 
690.00 	1.387940 	0.000000 
695.00 	1.387880 	0.000000 
700.00 	1.387820 	0.000000 
720.00 	1.387580 	0.000000 
740.00 	1.387350 	0.000000 
760.00 	1.387140 	0.000000 
780.00 	1.386930 	0.000000 
800.00 	1.386740 	0.000000 
820.00 	1.386560 	0.000000 
840.00 	1.386390 	0.000000 
860.00 	1.386220 	0.000000 
880.00 	1.386060 	0.000000 
900.00 	1.385900 	0.000000 
920.00 	1.385750 	0.000000 
940.00 	1.385610 	0.000000 
960.00 	1.385460 	0.000000 
980.00 	1.385330 	0.000000 
1000.00 	1.385190 	0.000000 
1020.00 	1.385060 	0.000000 
1040.00 	1.384930 	0.000000 
1060.00 	1.384800 	0.000000 
1080.00 	1.384680 	0.000000 
1100.00 	1.384560 	0.000000 
1120.00 	1.384440 	0.000000 
1140.00 	1.384320 	0.000000 
1160.00 	1.384200 	0.000000 
1180.00 	1.384080 	0.000000 
1200.00 	1.383960 	0.000000 
1220.00 	1.383840 	0.000000 
1240.00 	1.383730 	0.000000 
1260.00 	1.383610 	0.000000 
1280.00 	1.383500 	0.000000 
1300.00 	1.383380 	0.000000 
1320.00 	1.383270 	0.000000 
1340.00 	1.383150 	0.000000 
1360.00 	1.383040 	0.000000 
1380.00 	1.382930 	0.000000 
1400.00 	1.382810 	0.000000 
1420.00 	1.382700 	0.000000 
1440.00 	1.382580 	0.000000 
1460.00 	1.382460 	0.000000 
1480.00 	1.382350 	0.000000 
1500.00 	1.382230 	0.000000 
1520.00 	1.382110 	0.000000 
1540.00 	1.382000 	0.000000 
1560.00 	1.381880 	0.000000 
1580.00 	1.381760 	0.000000 
1600.00 	1.381640 	0.000000 
1620.00 	1.381520 	0.000000 
1640.00 	1.381400 	0.000000 
1660.00 	1.381280 	0.000000 
1680.00 	1.381160 	0.000000 
1700.00 	1.381030 	0.000000 
1720.00 	1.380910 	0.000000 
1740.00 	1.380780 	0.000000 
1760.00 	1.380660 	0.000000 
1780.00 	1.380530 	0.000000 
1800.00 	1.380400 	0.000000 
1820.00 	1.380280 	0.000000 
1840.00 	1.380150 	0.000000 
1860.00 	1.380020 	0.000000 
1880.00 	1.379880 	0.000000 
1900.00 	1.379750 	0.000000 
1920.00 	1.379620 	0.000000 
1940.00 	1.379480 	0.000000 
1960.00 	1.379350 	0.000000 
1980.00 	1.379210 	0.000000 
2000.00 	1.379070 	0.000000 
