; From SOPRA S.A. http://www.sopra-sa.com/indices.htm
; Filename    Symbol               Range (nm)     Description
; MOSI2-A     MoSi2               281     1239    Molybdenum Silicide (parallel to c axis)
; lambda/nm       n         k
281.78	2.52000000	3.36900000
288.34	2.50200000	3.44600000
295.20	2.57600000	3.50300000
302.40	2.69900000	3.53300000
309.96	2.84000000	3.53300000
317.91	2.98000000	3.50700000
326.28	3.10100000	3.45900000
335.10	3.21600000	3.39800000
344.40	3.30100000	3.33000000
354.24	3.38400000	3.26100000
364.66	3.45300000	3.19900000
375.71	3.52200000	3.14400000
387.45	3.59700000	3.09900000
399.95	3.68400000	3.06200000
413.28	3.78600000	3.02700000
427.54	3.90300000	2.99000000
442.80	4.03300000	2.94300000
459.20	4.17000000	2.88000000
476.87	4.30800000	2.79500000
495.94	4.43700000	2.68600000
516.60	4.55000000	2.55400000
539.07	4.63900000	2.40500000
563.57	4.70000000	2.24900000
590.41	4.73400000	2.10000000
619.93	4.74400000	1.97100000
652.55	4.73900000	1.89300000
688.81	4.73200000	1.80700000
729.32	4.73200000	1.74100000
774.91	4.74400000	1.69000000
826.57	4.76500000	1.64100000
885.61	4.78500000	1.57700000
953.73	4.79000000	1.48700000
1033.21	4.78700000	1.37500000
1127.14	4.79800000	1.26900000
1239.85	4.77800000	1.15200000
