; From SOPRA S.A. http://www.sopra-sa.com/indices.htm
; Filename    Symbol               Range (nm)     Description
; MOSI2-B     MoSi2               281     1239    Molybdenum Silicide (perpendicular to c axis)
; lambda/nm       n         k
281.78	2.55700000	3.16900000
288.34	2.28200000	3.05900000
295.20	2.24800000	3.01600000
302.40	2.25400000	3.01600000
309.96	2.27800000	3.04100000
317.91	2.31200000	3.07900000
326.28	2.35500000	3.12200000
335.10	2.40100000	3.16400000
344.40	2.46800000	3.20600000
354.24	2.54000000	3.24700000
364.66	2.62600000	3.29200000
375.71	2.72700000	3.34300000
387.45	2.84800000	3.40200000
399.95	2.99100000	3.46900000
413.28	3.16100000	3.54100000
427.54	3.35800000	3.56700000
442.80	3.58300000	3.58400000
459.20	3.82500000	3.56500000
476.87	4.07100000	3.49900000
495.94	4.29800000	3.38900000
516.60	4.48500000	3.24900000
539.07	4.62100000	3.09100000
563.57	4.70700000	2.93200000
590.41	4.75500000	2.78100000
619.93	4.78100000	2.64700000
652.55	4.80000000	2.53300000
688.81	4.82200000	2.43700000
729.32	4.85400000	2.35300000
774.91	4.89800000	2.27500000
826.57	4.95300000	2.19500000
885.61	5.01600000	2.10400000
953.73	5.08200000	2.00000000
1033.21	5.14500000	1.88100000
1127.14	5.19200000	1.75500000
1239.85	5.21200000	1.63400000
