;  Optical constants for Na
; 
;   taken from:
;
;   'Handbook of Optical Constants of Solids II', Ed. by Edward D. Palik,
;   Academic Press, Inc., 1991.
;   
;    Lambda (nm)            n            k
;-----------------------------------------
143.60	0.76200000	0.00000000
154.69	0.71000000	0.00000000
158.00	0.70000000	0.00000000
163.50	0.67400000	0.00000000
169.19	0.64100000	0.00000000
173.88	0.61600000	0.00000000
179.99	0.57400000	0.00000000
184.99	0.53300000	0.00000000
189.98	0.48500000	0.00000000
195.00	0.45400000	0.00000000
200.00	0.39000000	0.00000000
312.29	0.04900000	1.01000000
334.18	0.05500000	1.13000000
364.65	0.06100000	1.33000000
387.44	0.06500000	1.47000000
405.16	0.06900000	1.54000000
420.27	0.06800000	1.63000000
439.64	0.06800000	1.76000000
469.62	0.06600000	1.88000000
506.04	0.06300000	2.07000000
546.17	0.05900000	2.23000000
598.94	0.05300000	2.48000000
663.00	0.04900000	2.76000000
751.39	0.05000000	3.22000000
860.97	0.05300000	3.72000000
1007.97	0.06400000	4.35000000
1180.76	0.07800000	5.11000000
1347.61	0.09900000	5.82000000
1530.62	0.12300000	6.67000000
1698.36	0.14700000	7.42000000
1850.45	0.17500000	8.09000000
1967.94	0.20700000	8.80000000
2137.59	0.24100000	9.45000000
2254.18	0.26200000	9.97000000
