; Refractive index spectrum for Ni by Ordal
;
; M. A. Ordal et al. Optical properties of Au, Ni, and Pb at submillimeter wavelengths, <a href="http://dx.doi.org/10.1364/AO.26.000744"><i>Appl. Opt.</i> <b>26</b>, 744-752 (1987)</a>
;
; lambda/nm    n     k
667.00 	2.15000000 	3.88000000 
714.00 	2.25000000 	4.11000000 
769.00 	2.40000000 	4.34000000 
833.00 	2.56000000 	4.57000000 
909.00 	2.69000000 	4.80000000 
1000.00 	2.82000000 	5.11000000 
1050.00 	2.87000000 	5.28000000 
1110.00 	2.95000000 	5.48000000 
1180.00 	2.99000000 	5.70000000 
1250.00 	3.05000000 	5.98000000 
1330.00 	3.14000000 	6.30000000 
1430.00 	3.23000000 	6.65000000 
1540.00 	3.36000000 	7.05000000 
1670.00 	3.51000000 	7.49000000 
1820.00 	3.64000000 	8.01000000 
2000.00 	3.83000000 	8.63000000 
