; Refractive index spectrum for Pb by Ordal
;
; M. A. Ordal et al. Optical properties of Au, Ni, and Pb at submillimeter wavelengths, <a href="http://dx.doi.org/10.1364/AO.26.000744"><i>Appl. Opt.</i> <b>26</b>, 744-752 (1987)</a>
;
; lambda/nm    n     k
667.00 	1.88000000 	3.49000000 
714.00 	1.74000000 	3.58000000 
769.00 	1.55000000 	3.85000000 
833.00 	1.46000000 	4.25000000 
909.00 	1.39000000 	4.70000000 
1000.00 	1.36000000 	5.26000000 
1050.00 	1.35000000 	5.58000000 
1110.00 	1.36000000 	5.94000000 
1180.00 	1.38000000 	6.35000000 
1250.00 	1.42000000 	6.80000000 
1330.00 	1.48000000 	7.31000000 
1430.00 	1.57000000 	7.88000000 
1540.00 	1.69000000 	8.53000000 
1670.00 	1.85000000 	9.27000000 
1820.00 	2.04000000 	10.10000000 
2000.00 	2.31000000 	11.20000000 
