; Refractive index spectrum for Pd by Johnson
;
; P. B. Johnson and R. W. Christy. Optical constants of transition metals: Ti, V, Cr, Mn, Fe, Co, Ni, and Pd, <a href="http://dx.doi.org/10.1103/PhysRevB.9.5056"><i>Phys. Rev. B</i> <b>9</b>, 5056-5070 (1974)</a>
;
; Room temperature
;
; lambda/nm    n     k
188.00 	0.84000000 	1.38000000 
192.00 	0.85000000 	1.42000000 
195.00 	0.85000000 	1.46000000 
199.00 	0.85000000 	1.50000000 
203.00 	0.86000000 	1.55000000 
207.00 	0.87000000 	1.60000000 
212.00 	0.89000000 	1.65000000 
216.00 	0.91000000 	1.70000000 
221.00 	0.92000000 	1.76000000 
226.00 	0.94000000 	1.81000000 
231.00 	0.97000000 	1.86000000 
237.00 	1.00000000 	1.91000000 
243.00 	1.04000000 	1.95000000 
249.00 	1.08000000 	1.99000000 
255.00 	1.11000000 	2.03000000 
262.00 	1.13000000 	2.07000000 
269.00 	1.16000000 	2.10000000 
276.00 	1.19000000 	2.13000000 
284.00 	1.18000000 	2.18000000 
292.00 	1.18000000 	2.23000000 
301.00 	1.20000000 	2.29000000 
311.00 	1.21000000 	2.35000000 
320.00 	1.21000000 	2.42000000 
332.00 	1.20000000 	2.50000000 
342.00 	1.22000000 	2.57000000 
354.00 	1.23000000 	2.65000000 
368.00 	1.24000000 	2.74000000 
381.00 	1.26000000 	2.83000000 
397.00 	1.30000000 	2.93000000 
413.00 	1.33000000 	3.03000000 
431.00 	1.37000000 	3.14000000 
451.00 	1.41000000 	3.26000000 
471.00 	1.46000000 	3.39000000 
496.00 	1.52000000 	3.54000000 
521.00 	1.57000000 	3.68000000 
549.00 	1.64000000 	3.84000000 
582.00 	1.68000000 	4.02000000 
617.00 	1.75000000 	4.21000000 
659.00 	1.80000000 	4.42000000 
704.00 	1.86000000 	4.65000000 
756.00 	1.95000000 	4.89000000 
821.00 	2.06000000 	5.19000000 
892.00 	2.23000000 	5.50000000 
984.00 	2.34000000 	5.89000000 
1088.00 	2.52000000 	6.33000000 
1216.00 	2.66000000 	6.90000000 
1393.00 	2.80000000 	7.65000000 
1610.00 	3.01000000 	8.59000000 
1937.00 	3.34000000 	9.89000000 
