;  Optical constants for Se, ordinary ray
; 
;   taken from:
;
;   'Handbook of Optical Constants of Solids II', Ed. by Edward D. Palik,
;   Academic Press, Inc., 1991.
;   
;    Lambda (nm)            n            k
;-----------------------------------------
103.32	1.66000000	1.25000000
103.32	1.25000000	1.02000000
107.81	1.71000000	1.08000000
107.81	1.33000000	1.01000000
112.71	1.69000000	1.02000000
112.71	1.36000000	1.00000000
115.87	1.37000000	1.04000000
118.08	1.71000000	0.99000000
118.08	1.43000000	1.06000000
123.98	1.72000000	0.95000000
123.98	1.56000000	1.03000000
127.81	1.57000000	0.97000000
130.51	1.57000000	0.97000000
134.76	1.58000000	1.00000000
137.76	1.66000000	1.02000000
142.51	1.75000000	1.02000000
145.86	1.82000000	0.92000000
150.28	1.84000000	0.80000000
154.97	1.81000000	0.69000000
159.97	1.73000000	0.69000000
165.31	1.71000000	0.67000000
171.01	1.69000000	0.64000000
177.11	1.62000000	0.61000000
183.67	1.57000000	0.62000000
190.74	1.51000000	0.63000000
198.37	1.41000000	0.67000000
206.63	1.32000000	0.73000000
215.62	1.28000000	0.87000000
225.42	1.22000000	1.03000000
236.15	1.21000000	1.25000000
247.96	1.25000000	1.50000000
261.01	1.41000000	1.75000000
275.51	1.75000000	1.94000000
281.77	1.89000000	1.72000000
291.72	2.01000000	2.07000000
295.19	2.18000000	1.83000000
309.95	2.67000000	1.99000000
309.95	2.51000000	1.81000000
326.26	2.84000000	1.66000000
344.39	3.06000000	1.47000000
364.65	3.22000000	1.24000000
387.44	3.35000000	1.01000000
413.27	3.30000000	0.70000000
442.79	3.12000000	0.58000000
476.85	3.00000000	0.53000000
516.58	2.93000000	0.61000000
563.54	3.07000000	0.73000000
619.90	3.38000000	0.65000000
688.78	3.32000000	0.11000000
999.84	2.81600000	0.00002310
1110.93	2.77200000	0.00002480
1249.92	2.73900000	0.00002690
1428.51	2.71300000	0.00002960
1666.62	2.69200000	0.00003320
2000.00	2.67500000	0.00003820
