; From SOPRA S.A. http://www.sopra-sa.com/indices.htm
; Filename    Symbol               Range (nm)     Description
; RESIGE91    Si0.09Ge0.91        163     2479    Silicon Germanium alloy (relaxed, 91% Ge)
; lambda/nm       n         k
221.40	1.27059800	2.80970100
225.43	1.30028100	2.78401400
229.60	1.29880600	2.78332500
233.93	1.29040700	2.81694000
238.43	1.27595900	2.88410600
243.11	1.27826700	2.98059800
247.97	1.29840600	3.09610400
253.03	1.33472500	3.23287600
258.30	1.38768900	3.39052800
263.80	1.46557000	3.57881200
269.53	1.58366500	3.80762300
275.52	1.78427200	4.10531700
281.78	2.21180200	4.44207900
288.34	2.90328200	4.45185900
295.20	3.37537400	4.10769400
302.40	3.58810200	3.75825400
309.96	3.67929200	3.49387900
317.91	3.73708400	3.29936300
326.28	3.78240300	3.14747000
335.10	3.83067800	3.02557400
344.40	3.88083300	2.92076500
354.24	3.93275300	2.83135000
364.66	4.00414100	2.74465800
375.71	4.07933000	2.63646200
387.45	4.13298500	2.51029200
399.95	4.14400200	2.38175500
413.28	4.10827200	2.30388800
427.54	4.08206700	2.29418100
442.80	4.11362100	2.33492600
459.20	4.19577200	2.39050200
476.87	4.34038500	2.45945900
495.94	4.59378700	2.52841500
516.60	5.01678200	2.43682100
539.07	5.32802200	2.17435300
563.57	5.75471400	1.71077100
590.41	5.64215600	0.99695900
619.93	5.36129900	0.65842300
652.55	5.12468300	0.51222600
688.81	4.95499400	0.36326900
729.32	4.81342600	0.26280600
