;UO 
;UO ZnS-c.ASC: Values of n and k for cubic zinc sulfide from various
;UO references in HOCI (pg. 606) & HOCII (pg. 12). References are 20,
;UO 21, 22, 23, 24, 26, 35, 39, 40, 43, 44.
;UO 
;UO Copyright (c) 1995 by the Optical Society of America.  Some data
;UO from HANDBOOK OF OPTICAL CONSTANTS IN SOLIDS edited by Edward D.
;UO Palik. Copyright (c) 1985, 1991 by Academic Press, Inc. Reproduced
;UO by permission of the publisher.
;UO ------------------------------------------------------------- 
;UO        nm        n        k
;UO -------------------------------------------------------------
;N  7
;L    Wavelength[nm]        n        k
103.30	0.95000000	0.98000000
105.00	0.83400000	0.90300000
107.80	0.87000000	1.10000000
110.00	0.81900000	1.02000000
112.70	0.89000000	1.26000000
115.00	0.85500000	1.14000000
118.10	0.99000000	1.41000000
120.00	0.92900000	1.27000000
124.00	1.13000000	1.54000000
125.00	1.02000000	1.36000000
130.00	1.13000000	1.42000000
130.50	1.40000000	1.66000000
135.00	1.23000000	1.44000000
137.80	1.71000000	1.50000000
140.00	1.33000000	1.44000000
145.00	1.38000000	1.45000000
145.90	1.53000000	1.28000000
150.00	1.41000000	1.47000000
155.00	1.48000000	1.53000000
160.00	1.55000000	1.58000000
165.00	1.65000000	1.64000000
165.30	1.68000000	1.75000000
170.00	1.76000000	1.70000000
171.00	2.05000000	1.91000000
175.00	1.88000000	1.72000000
177.10	2.40000000	2.02000000
180.00	2.01000000	1.72000000
183.70	2.64000000	1.40000000
185.00	2.11000000	1.68000000
190.00	2.19000000	1.64000000
190.70	2.50000000	1.25000000
195.00	2.26000000	1.62000000
198.40	2.35000000	1.21000000
200.00	2.32000000	1.62000000
206.60	2.24000000	1.65000000
215.60	2.80000000	1.72000000
225.40	3.18000000	1.30000000
236.20	3.06000000	0.85000000
248.00	2.97000000	0.68000000
261.00	2.90000000	0.54000000
275.50	2.81000000	0.46000000
291.70	2.74000000	0.42000000
310.00	2.70000000	0.44000000
330.60	2.84000000	0.30000000
354.20	2.79000000	0.10000000
381.50	2.64000000	0.06000000
413.30	2.54000000	0.04000000
495.90	2.42480000	0.03000000
619.90	2.35760000	0.01000000
1033.00	2.29030000	0.0
1078.00	2.28740000	0.0
1127.00	2.28460000	0.0
1181.00	2.28200000	0.0
1240.00	2.27950000	0.0
1305.00	2.27710000	0.0
1378.00	2.27480000	0.0
1459.00	2.27270000	0.0
1550.00	2.27060000	0.0
1653.00	2.26870000	0.0
1771.00	2.26690000	0.0
1907.00	2.26510000	0.0
2066.00	2.26340000	0.0
2254.00	2.26180000	0.0
2480.00	2.26030000	0.0
2755.00	2.25870000	0.0
